Time (ms),Voltage (V)
0.000000,0.046693
0.001500,0.046693
0.003000,0.046693
0.004500,0.046693
0.006000,0.002899
0.007500,0.046693
0.009000,0.046693
0.010500,0.046693
0.012000,0.046693
0.013500,0.046693
0.015000,0.002899
0.016500,0.046693
0.018000,0.046693
0.019500,0.002899
0.021000,0.046693
0.022500,0.002899
0.024000,0.046693
0.025500,0.046693
0.027000,0.046693
0.028500,0.046693
0.030000,0.046693
0.031500,0.046693
0.033000,0.046693
0.034500,0.002899
0.036000,0.046693
0.037500,0.002899
0.039000,0.046693
0.040500,0.046693
0.042000,0.046693
0.043500,0.002899
0.045000,0.046693
0.046500,3.337352
0.048000,3.337352
0.049500,3.337352
0.051000,3.337352
0.052500,3.337352
0.054000,3.337352
0.055500,3.293558
0.057000,3.293558
0.058500,3.337352
0.060000,3.337352
0.061500,3.337352
0.063000,3.337352
0.064500,3.337352
0.066000,3.337352
0.067500,3.337352
0.069000,3.337352
0.070500,3.337352
0.072000,3.381298
0.073500,3.337352
0.075000,3.337352
0.076500,3.337352
0.078000,3.337352
0.079500,3.337352
0.081000,3.337352
0.082500,3.337352
0.084000,3.337352
0.085500,3.337352
0.087000,3.337352
0.088500,3.337352
0.090000,3.337352
0.091500,3.337352
0.093000,3.337352
0.094500,3.293558
0.096000,3.293558
0.097500,3.337352
0.099000,3.337352
0.100500,3.337352
0.102000,3.337352
0.103500,3.337352
0.105000,3.337352
0.106500,3.337352
0.108000,3.337352
0.109500,3.337352
0.111000,3.337352
0.112500,3.337352
0.114000,3.337352
0.115500,3.293558
0.117000,3.337352
0.118500,3.337352
0.120000,3.337352
0.121500,3.337352
0.123000,3.337352
0.124500,3.337352
0.126000,3.293558
0.127500,3.337352
0.129000,3.337352
0.130500,3.337352
0.132000,3.337352
0.133500,3.337352
0.135000,3.337352
0.136500,3.337352
0.138000,3.337352
0.139500,3.293558
0.141000,3.337352
0.142500,3.337352
0.144000,3.337352
0.145500,3.337352
0.147000,3.337352
0.148500,3.337352
0.150000,0.046693
0.151500,0.002899
0.153000,0.002899
0.154500,0.046693
0.156000,0.002899
0.157500,0.046693
0.159000,0.046693
0.160500,0.046693
0.162000,0.002899
0.163500,0.046693
0.165000,0.046693
0.166500,0.002899
0.168000,0.046693
0.169500,0.046693
0.171000,0.046693
0.172500,0.046693
0.174000,0.046693
0.175500,0.002899
0.177000,0.046693
0.178500,0.046693
0.180000,0.046693
0.181500,0.046693
0.183000,0.046693
0.184500,0.002899
0.186000,0.046693
0.187500,0.046693
0.189000,0.002899
0.190500,0.046693
0.192000,0.002899
0.193500,0.046693
0.195000,0.046693
0.196500,0.046693
0.198000,0.046693
0.199500,0.046693
0.201000,0.002899
0.202500,0.046693
0.204000,0.046693
0.205500,0.046693
0.207000,0.046693
0.208500,0.046693
0.210000,0.002899
0.211500,0.046693
0.213000,0.046693
0.214500,0.046693
0.216000,0.046693
0.217500,0.046693
0.219000,0.046693
0.220500,0.046693
0.222000,0.046693
0.223500,0.046693
0.225000,0.046693
0.226500,0.046693
0.228000,0.002899
0.229500,0.046693
0.231000,0.046693
0.232500,0.046693
0.234000,0.002899
0.235500,0.046693
0.237000,0.046693
0.238500,0.046693
0.240000,0.002899
0.241500,0.046693
0.243000,0.046693
0.244500,0.046693
0.246000,0.002899
0.247500,0.046693
0.249000,0.046693
0.250500,0.046693
0.252000,0.046693
0.253500,0.046693
0.255000,0.002899
0.256500,0.046693
0.258000,0.002899
0.259500,0.002899
0.261000,0.046693
0.262500,0.046693
0.264000,0.046693
0.265500,0.046693
0.267000,0.046693
0.268500,0.046693
0.270000,0.002899
0.271500,0.002899
0.273000,0.002899
0.274500,0.046693
0.276000,0.002899
0.277500,0.046693
0.279000,0.002899
0.280500,0.002899
0.282000,0.046693
0.283500,0.046693
0.285000,0.002899
0.286500,0.046693
0.288000,0.046693
0.289500,0.002899
0.291000,0.002899
0.292500,0.046693
0.294000,0.046693
0.295500,0.046693
0.297000,0.002899
0.298500,0.046693
0.300000,0.046693
0.301500,0.046693
0.303000,0.046693
0.304500,0.046693
0.306000,0.046693
0.307500,0.002899
0.309000,0.046693
0.310500,0.002899
0.312000,0.002899
0.313500,0.046693
0.315000,0.046693
0.316500,0.002899
0.318000,0.046693
0.319500,0.046693
0.321000,0.046693
0.322500,0.046693
0.324000,0.046693
0.325500,0.046693
0.327000,0.002899
0.328500,0.002899
0.330000,0.046693
0.331500,0.046693
0.333000,0.002899
0.334500,0.046693
0.336000,0.046693
0.337500,0.046693
0.339000,0.046693
0.340500,0.046693
0.342000,0.046693
0.343500,0.046693
0.345000,0.046693
0.346500,0.002899
0.348000,0.002899
0.349500,0.002899
0.351000,0.046693
0.352500,0.002899
0.354000,0.002899
0.355500,0.046693
0.357000,0.046693
0.358500,0.046693
0.360000,0.046693
0.361500,0.002899
0.363000,0.046693
0.364500,0.046693
0.366000,0.046693
0.367500,0.002899
0.369000,0.046693
0.370500,0.002899
0.372000,0.002899
0.373500,0.002899
0.375000,0.046693
0.376500,0.002899
0.378000,0.046693
0.379500,0.046693
0.381000,0.046693
0.382500,0.046693
0.384000,0.046693
0.385500,0.046693
0.387000,0.046693
0.388500,0.046693
0.390000,0.046693
0.391500,0.046693
0.393000,0.002899
0.394500,0.046693
0.396000,0.046693
0.397500,0.002899
0.399000,0.046693
0.400500,0.046693
0.402000,0.046693
0.403500,0.046693
0.405000,0.046693
0.406500,0.046693
0.408000,0.002899
0.409500,0.046693
0.411000,0.046693
0.412500,0.002899
0.414000,0.002899
0.415500,0.046693
0.417000,0.046693
0.418500,0.046693
0.420000,0.046693
0.421500,0.046693
0.423000,0.046693
0.424500,0.046693
0.426000,0.046693
0.427500,0.002899
0.429000,0.002899
0.430500,0.002899
0.432000,0.046693
0.433500,0.046693
0.435000,0.046693
0.436500,0.046693
0.438000,0.046693
0.439500,0.046693
0.441000,0.046693
0.442500,0.002899
0.444000,0.046693
0.445500,0.046693
0.447000,0.002899
0.448500,0.002899
0.450000,0.002899
0.451500,0.046693
0.453000,0.046693
0.454500,0.046693
0.456000,0.046693
0.457500,0.046693
0.459000,0.046693
0.460500,0.002899
0.462000,0.046693
0.463500,0.046693
0.465000,0.002899
0.466500,0.002899
0.468000,0.002899
0.469500,0.046693
0.471000,0.046693
0.472500,0.002899
0.474000,0.002899
0.475500,0.002899
0.477000,0.046693
0.478500,0.046693
0.480000,0.046693
0.481500,0.046693
0.483000,0.046693
0.484500,0.046693
0.486000,0.046693
0.487500,0.046693
0.489000,0.002899
0.490500,0.046693
0.492000,0.046693
0.493500,0.046693
0.495000,0.046693
0.496500,0.046693
0.498000,0.046693
0.499500,0.046693
0.501000,0.002899
0.502500,0.046693
0.504000,0.002899
0.505500,0.002899
0.507000,0.046693
0.508500,0.046693
0.510000,0.002899
0.511500,0.002899
0.513000,0.046693
0.514500,0.046693
0.516000,0.046693
0.517500,0.046693
0.519000,0.046693
0.520500,0.046693
0.522000,0.046693
0.523500,0.046693
0.525000,0.002899
0.526500,0.046693
0.528000,0.046693
0.529500,0.046693
0.531000,0.002899
0.532500,0.046693
0.534000,0.046693
0.535500,0.046693
0.537000,0.002899
0.538500,0.046693
0.540000,0.046693
0.541500,0.046693
0.543000,0.046693
0.544500,0.046693
0.546000,0.002899
0.547500,0.002899
0.549000,0.046693
0.550500,0.002899
0.552000,0.046693
0.553500,0.046693
0.555000,0.046693
0.556500,0.046693
0.558000,0.046693
0.559500,0.046693
0.561000,0.046693
0.562500,0.046693
0.564000,0.002899
0.565500,0.046693
0.567000,0.046693
0.568500,0.002899
0.570000,0.002899
0.571500,0.046693
0.573000,0.046693
0.574500,0.002899
0.576000,0.046693
0.577500,0.046693
0.579000,0.046693
0.580500,0.046693
0.582000,0.046693
0.583500,0.046693
0.585000,0.046693
0.586500,0.002899
0.588000,0.046693
0.589500,0.046693
0.591000,0.046693
0.592500,0.046693
0.594000,0.046693
0.595500,0.046693
0.597000,0.046693
0.598500,0.046693
0.600000,0.046693
0.601500,0.046693
0.603000,0.046693
0.604500,0.002899
0.606000,0.002899
0.607500,0.046693
0.609000,0.046693
0.610500,0.046693
0.612000,0.002899
0.613500,0.046693
0.615000,0.046693
0.616500,0.046693
0.618000,0.046693
0.619500,0.002899
0.621000,0.046693
0.622500,0.046693
0.624000,0.002899
0.625500,0.002899
0.627000,0.046693
0.628500,0.046693
0.630000,0.002899
0.631500,0.046693
0.633000,0.046693
0.634500,0.046693
0.636000,0.002899
0.637500,0.046693
0.639000,0.046693
0.640500,0.046693
0.642000,0.046693
0.643500,0.002899
0.645000,0.002899
0.646500,0.046693
0.648000,0.046693
0.649500,0.046693
0.651000,0.046693
0.652500,0.046693
0.654000,0.046693
0.655500,0.046693
0.657000,0.046693
0.658500,0.046693
0.660000,0.046693
0.661500,0.002899
0.663000,0.002899
0.664500,0.046693
0.666000,0.046693
0.667500,0.002899
0.669000,0.002899
0.670500,0.046693
0.672000,0.046693
0.673500,0.046693
0.675000,0.046693
0.676500,0.002899
0.678000,0.046693
0.679500,0.046693
0.681000,0.002899
0.682500,0.046693
0.684000,0.002899
0.685500,0.046693
0.687000,0.002899
0.688500,0.002899
0.690000,0.002899
0.691500,0.046693
0.693000,0.002899
0.694500,0.046693
0.696000,0.046693
0.697500,0.046693
0.699000,0.046693
0.700500,0.046693
0.702000,0.046693
0.703500,0.002899
0.705000,0.002899
0.706500,0.046693
0.708000,0.002899
0.709500,0.046693
0.711000,0.046693
0.712500,0.046693
0.714000,0.046693
0.715500,0.046693
0.717000,0.046693
0.718500,0.002899
0.720000,0.046693
0.721500,0.002899
0.723000,0.002899
0.724500,0.002899
0.726000,0.002899
0.727500,0.002899
0.729000,0.046693
0.730500,0.046693
0.732000,0.002899
0.733500,0.046693
0.735000,0.002899
0.736500,0.002899
0.738000,0.046693
0.739500,0.046693
0.741000,0.002899
0.742500,0.002899
0.744000,0.046693
0.745500,0.046693
0.747000,0.046693
0.748500,0.002899
0.750000,0.046693
0.751500,0.046693
0.753000,0.002899
0.754500,0.002899
0.756000,0.002899
0.757500,0.046693
0.759000,0.046693
0.760500,0.046693
0.762000,0.002899
0.763500,0.002899
0.765000,0.002899
0.766500,0.046693
0.768000,0.046693
0.769500,0.046693
0.771000,0.046693
0.772500,0.046693
0.774000,0.046693
0.775500,3.337352
0.777000,3.293558
0.778500,3.293558
0.780000,3.337352
0.781500,3.293558
0.783000,3.337352
0.784500,3.337352
0.786000,3.337352
0.787500,3.337352
0.789000,3.293558
0.790500,3.337352
0.792000,3.337352
0.793500,3.337352
0.795000,3.337352
0.796500,3.337352
0.798000,3.337352
0.799500,3.337352
0.801000,3.337352
0.802500,3.337352
0.804000,3.337352
0.805500,3.337352
0.807000,3.293558
0.808500,3.337352
0.810000,3.337352
0.811500,3.337352
0.813000,3.337352
0.814500,3.337352
0.816000,3.337352
0.817500,3.337352
0.819000,3.337352
0.820500,3.337352
0.822000,3.337352
0.823500,3.337352
0.825000,3.337352
0.826500,3.337352
0.828000,3.337352
0.829500,3.337352
0.831000,3.337352
0.832500,3.337352
0.834000,3.337352
0.835500,3.337352
0.837000,3.337352
0.838500,3.293558
0.840000,3.337352
0.841500,3.293558
0.843000,3.337352
0.844500,3.337352
0.846000,3.337352
0.847500,3.337352
0.849000,3.337352
0.850500,3.337352
0.852000,3.337352
0.853500,3.337352
0.855000,3.337352
0.856500,3.337352
0.858000,3.337352
0.859500,3.337352
0.861000,3.293558
0.862500,3.337352
0.864000,3.337352
0.865500,3.337352
0.867000,3.337352
0.868500,3.337352
0.870000,3.337352
0.871500,3.337352
0.873000,3.337352
0.874500,3.337352
0.876000,3.337352
0.877500,3.337352
0.879000,0.002899
0.880500,0.002899
0.882000,0.002899
0.883500,0.002899
0.885000,0.046693
0.886500,0.046693
0.888000,0.046693
0.889500,0.046693
0.891000,0.046693
0.892500,0.046693
0.894000,0.046693
0.895500,0.002899
0.897000,0.046693
0.898500,0.046693
0.900000,0.046693
0.901500,0.002899
0.903000,0.002899
0.904500,0.046693
0.906000,0.046693
0.907500,0.046693
0.909000,0.046693
0.910500,0.046693
0.912000,0.046693
0.913500,0.046693
0.915000,0.046693
0.916500,0.002899
0.918000,0.002899
0.919500,0.002899
0.921000,0.002899
0.922500,0.046693
0.924000,0.046693
